#Title: Jupiter and Saturn as Spectral Analogs for 
#       Extrasolar Gas Giants and Brown Dwarfs 
#Authors: Coulter D.J., Barnes J.W., Fortney J.J.
#Figure: Disk-integrated spectra of Saturn for six phase angles
#================================================================================
#Byte-by-byte Description of file: dbf6.txt
#--------------------------------------------------------------------------------
#   Bytes Format Units        Label       Explanations
#--------------------------------------------------------------------------------
#   1-  6 F6.2   deg          Phase       Phase angle
#   8- 15 F8.6   um           Wavelength  Wavelength
#  17- 26 F10.6  uW/cm2/sr/um Flux        Spectral flux radiance
#  28- 36 F9.6   ---          I/F         Apparent reflectance
#--------------------------------------------------------------------------------
 39.64 0.350540  44.678152  0.119065 
 39.64 0.358950  42.127346  0.112973 
 39.64 0.366290  45.857722  0.107358 
 39.64 0.373220  42.837688  0.103720 
 39.64 0.379490  42.210159  0.102647 
 39.64 0.387900  40.933395  0.102767 
 39.64 0.395180  43.789241  0.102520 
 39.64 0.402520  68.080748  0.111758 
 39.64 0.409550  75.827940  0.118014 
 39.64 0.417310  84.504747  0.126932 
 39.64 0.424360  87.450067  0.134928 
 39.64 0.431840  90.709115  0.146510 
 39.64 0.439190 105.229887  0.152747 
 39.64 0.446520 120.988124  0.161544 
 39.64 0.453720 132.656979  0.171128 
 39.64 0.461630 137.840124  0.176413 
 39.64 0.468410 140.938946  0.184303 
 39.64 0.476220 149.022708  0.191890 
 39.64 0.486290 144.950932  0.197802 
 39.64 0.489670 146.035277  0.199865 
 39.64 0.497770 157.327643  0.213326 
 39.64 0.506280 156.674388  0.216583 
 39.64 0.512220 157.414971  0.221939 
 39.64 0.519630 152.217820  0.225532 
 39.64 0.527660 160.660232  0.229315 
 39.64 0.534160 165.709225  0.233091 
 39.64 0.541560 160.329294  0.228458 
 39.64 0.549540 169.304485  0.239282 
 39.64 0.556140 169.829814  0.244675 
 39.64 0.563530 171.755865  0.249686 
 39.64 0.571310 173.491327  0.251393 
 39.64 0.578100 173.632806  0.251867 
 39.64 0.585480 176.197054  0.259409 
 39.64 0.593120 172.802594  0.259313 
 39.64 0.599380 170.940530  0.258037 
 39.64 0.607570 175.695741  0.267497 
 39.64 0.615050 150.646478  0.237449 
 39.64 0.622070 137.835341  0.217802 
 39.64 0.629400 169.931886  0.271799 
 39.64 0.637040 172.995733  0.280915 
 39.64 0.644080 166.297124  0.275087 
 39.64 0.651420 161.122730  0.273632 
 39.64 0.659100 153.287746  0.268772 
 39.64 0.666090 151.163111  0.261595 
 39.64 0.673420 158.164721  0.278469 
 39.64 0.681020 160.166010  0.287812 
 39.64 0.688030 155.966174  0.285393 
 39.64 0.695350 150.735325  0.281091 
 39.64 0.702880 128.516586  0.244766 
 39.64 0.710000 133.573525  0.257282 
 39.64 0.717330 113.344853  0.224205 
 39.64 0.724840  60.501849  0.120531 
 39.64 0.731980  62.011120  0.125737 
 39.64 0.739300 109.980872  0.228340 
 39.64 0.746760 133.121923  0.279228 
 39.64 0.753960 130.998034  0.278359 
 39.64 0.761280 121.699645  0.263523 
 39.64 0.768740 113.035383  0.250202 
 39.64 0.775950 105.025454  0.234932 
 39.64 0.783280  85.130247  0.192387 
 39.64 0.790720  83.351732  0.192092 
 39.64 0.797930  72.728523  0.170283 
 39.64 0.805220  82.257629  0.195875 
 39.64 0.812620  96.791820  0.233154 
 39.64 0.819890 104.830215  0.259247 
 39.64 0.827210 109.269708  0.272086 
 39.64 0.834630 101.413745  0.258339 
 39.64 0.841900  77.094798  0.199142 
 39.64 0.849220  84.037447  0.225795 
 39.64 0.856630  59.785594  0.164587 
 39.64 0.863910  30.227321  0.083430 
 39.64 0.871220  45.595934  0.126238 
 39.64 0.878630  47.050229  0.130472 
 39.64 0.885890   8.952130  0.025231 
 39.64 0.893210  10.434542  0.029452 
 39.64 0.909667  40.600024  0.118746 
 39.64 0.926122  77.294174  0.234253 
 39.64 0.942572  89.215846  0.279468 
 39.64 0.959010  72.384210  0.235128 
 39.64 0.975452  32.163153  0.108288 
 39.64 0.991881  15.402577  0.053752 
 39.64 1.008310  13.591075  0.049206 
 39.64 1.024730  22.418121  0.084329 
 39.64 1.041150  47.939210  0.187379 
 39.64 1.057560  65.030183  0.264000 
 39.64 1.073950  67.148906  0.282816 
 39.64 1.090360  62.406518  0.270326 
 39.64 1.106760  43.542195  0.194841 
 39.64 1.123170  15.486003  0.071221 
 39.64 1.139560   2.813460  0.013335 
 39.64 1.155950   2.303286  0.011213 
 39.64 1.172340   1.407296  0.007076 
 39.64 1.188720   2.750130  0.014228 
 39.64 1.205110  10.016853  0.053220 
 39.64 1.221500  28.257576  0.153941 
 39.64 1.237880  27.795549  0.156277 
 39.64 1.254270  40.925493  0.237064 
 39.64 1.270650  46.397069  0.276680 
 39.64 1.287020  47.792178  0.296162 
 39.64 1.303400  41.583234  0.264833 
 39.64 1.319790  19.458020  0.128680 
 39.64 1.336170   8.752690  0.059976 
 39.64 1.352560   3.193759  0.022650 
 39.64 1.368940   1.850455  0.013509 
 39.64 1.385320   1.496274  0.011203 
 39.64 1.401700   1.203856  0.009240 
 39.64 1.418100   1.863045  0.014682 
 39.64 1.434490   4.768435  0.038701 
 39.64 1.450890   6.792962  0.056658 
 39.64 1.467290  10.667947  0.091078 
 39.64 1.483690  14.432882  0.126455 
 39.64 1.500090  24.204231  0.216681 
 39.64 1.516510  26.750764  0.246793 
 39.64 1.532930  29.452572  0.278498 
 39.64 1.549350  30.645307  0.297423 
 39.64 1.565780  30.539531  0.304354 
 39.64 1.582210  31.243109  0.321035 
 39.64 1.598650  30.962859  0.328070 
 39.64 1.615120  26.996857  0.294256 
 39.64 1.631540  16.942970  0.189047 
 39.64 1.647990   7.789960  0.090841 
 39.64 1.664460   1.785774  0.021229 
 39.64 1.680930   2.033536  0.025126 
 39.64 1.697390   1.060476  0.013448 
 39.64 1.713870   0.365115  0.004805 
 39.64 1.730340   0.503387  0.006822 
 39.64 1.746820   1.721605  0.024412 
 39.64 1.763300   1.021155  0.014856 
 39.64 1.779780   0.401593  0.006035 
 39.64 1.796260   0.776427  0.012018 
 39.64 1.812740   2.428372  0.038690 
 39.64 1.829220   4.520660  0.075255 
 39.64 1.845700   2.936822  0.050326 
 39.64 1.862180   4.807109  0.084587 
 39.64 1.878660   8.626503  0.159257 
 39.64 1.895140   9.439531  0.176892 
 39.64 1.911610   7.333140  0.141646 
 39.64 1.928080   5.639896  0.112317 
 39.64 1.944550   5.967280  0.123530 
 39.64 1.961010   5.983656  0.126756 
 39.64 1.977480   6.084708  0.132977 
 39.64 1.993940   5.990589  0.134797 
 39.64 2.010410   5.166793  0.119580 
 39.64 2.026890   4.002330  0.095506 
 39.64 2.043360   2.980953  0.073668 
 39.64 2.059840   1.980208  0.050583 
 39.64 2.076330   1.257327  0.033275 
 39.64 2.092830   0.722830  0.019740 
 39.64 2.109340   0.474799  0.013283 
 39.64 2.125870   0.419834  0.012066 
 39.64 2.142400   0.680590  0.019971 
 39.64 2.158950   0.513604  0.015467 
 39.64 2.175520   0.151132  0.004776 
 39.64 2.192110   0.168742  0.005371 
 39.64 2.208700   0.138913  0.004542 
 39.64 2.225320   0.020239  0.000676 
 39.64 2.241950   0.107258  0.003711 
 39.64 2.258580   0.099689  0.003559 
 39.64 2.275220   0.028050  0.001028 
 39.64 2.291850   0.065028  0.002447 
 39.64 2.308490   0.055494  0.002140 
 39.64 2.325120   0.023167  0.000921 
 39.64 2.341740   0.048793  0.001991 
 39.64 2.358360   0.077547  0.003260 
 39.64 2.374960   0.047652  0.002046 
 39.64 2.391560   0.045581  0.002022 
 39.64 2.408150   0.021014  0.000945 
 39.64 2.424740   0.041894  0.001946 
 39.64 2.441320   0.115070  0.005446 
 39.64 2.457890   0.247374  0.012108 
 39.64 2.474470   0.673586  0.033572 
 39.64 2.491040   0.933148  0.047936 
 39.64 2.507610   1.100628  0.057336 
 39.64 2.524180   0.695329  0.037188 
 39.64 2.540750   0.700906  0.038524 
 39.64 2.557330   0.424982  0.024047 
 39.64 2.573900   0.147740  0.008526 
 39.64 2.590480   0.157982  0.009362 
 39.64 2.607070   0.260738  0.015627 
 39.64 2.623670   1.116170  0.068938 
 39.64 2.640260   2.526608  0.159335 
 39.64 2.656860   3.397311  0.218677 
 39.64 2.673470   3.774948  0.250731 
 39.64 2.690100   3.969530  0.268445 
 39.64 2.706720   4.137485  0.286159 
 39.64 2.723340   4.158493  0.294289 
 39.64 2.740000   4.107125  0.297162 
 39.64 2.756630   4.163667  0.309045 
 39.64 2.773270   4.155620  0.315854 
 39.64 2.789930   4.106870  0.317841 
 39.64 2.806590   3.803994  0.300551 
 39.64 2.823260   3.452132  0.278773 
 39.64 2.839920   3.057594  0.252449 
 39.64 2.856590   2.673400  0.225846 
 39.64 2.873260   2.281569  0.198147 
 39.64 2.889940   2.109487  0.186445 
 39.64 2.906610   2.051494  0.184811 
 39.64 2.923300   2.197089  0.202382 
 39.64 2.939980   2.218865  0.208864 
 39.64 2.956660   2.063207  0.198366 
 39.64 2.973340   1.991803  0.195218 
 39.64 2.990010   1.656918  0.165968 
 39.64 3.006770   2.007598  0.205708 
 39.64 3.023430   2.256612  0.235865 
 39.64 3.040120   2.262389  0.243608 
 39.64 3.056840   2.148726  0.234750 
 39.64 3.073530   2.032992  0.226373 
 39.64 3.090230   1.990248  0.226188 
 39.64 3.106930   1.898618  0.220167 
 39.64 3.123610   1.647174  0.195626 
 39.64 3.140320   1.312638  0.158360 
 39.64 3.157020   0.890310  0.109840 
 39.64 3.173720   0.453830  0.057078 
 39.64 3.190410   0.176071  0.022553 
 39.64 3.207110   0.060669  0.007931 
 39.64 3.223800   0.026305  0.003507 
 39.64 3.240500   0.020376  0.002772 
 39.64 3.257180   0.007491  0.001039 
 39.64 3.273870   0.010249  0.001450 
 39.64 3.290560   0.017992  0.002607 
 39.64 3.307240   0.002292  0.000340 
 39.64 3.323910   0.024447  0.003689 
 39.64 3.340590   0.027134  0.004149 
 39.64 3.357260   0.003755  0.000585 
 39.64 3.373920   0.008372  0.001331 
 39.64 3.390580   0.004760  0.000771 
 39.64 3.407250  -0.003694 -0.000612 
 39.64 3.423910   0.007294  0.001228 
 39.64 3.440570   0.008066  0.001379 
 39.64 3.457230   0.004335  0.000754 
 39.64 3.473890   0.012842  0.002278 
 39.64 3.490540   0.014675  0.002650 
 39.64 3.507200   0.017513  0.003218 
 39.64 3.523840   0.019121  0.003579 
 39.64 3.540500   0.015842  0.003023 
 39.64 3.557160   0.022348  0.004341 
 39.64 3.573810   0.013861  0.002743 
 39.64 3.590470  -0.006792 -0.001367 
 39.64 3.607110   0.011683  0.002392 
 39.64 3.623770   0.004880  0.001015 
 39.64 3.640430   0.017575  0.003727 
 39.64 3.657090   0.048970  0.010607 
 39.64 3.673740   0.076958  0.016959 
 39.64 3.690400   0.076895  0.017314 
 39.64 3.707060   0.098529  0.022695 
 39.64 3.723730   0.068102  0.015858 
 39.64 3.740390   0.023014  0.005495 
 39.64 3.757050   0.029606  0.007200 
 39.64 3.773710   0.022142  0.005422 
 39.64 3.790380   0.017498  0.004356 
 39.64 3.807040  -0.000025 -0.000006 
 39.64 3.823710   0.022273  0.005719 
 39.64 3.840390   0.010036  0.002616 
 39.64 3.857060   0.052042  0.013786 
 39.64 3.873700   0.134888  0.036404 
 39.64 3.890410   0.049631  0.013616 
 39.64 3.907090   0.042396  0.011813 
 39.64 3.923780   0.048578  0.013740 
 39.64 3.940470   0.079042  0.022736 
 39.64 3.957170   0.106913  0.031354 
 39.64 3.973870   0.212693  0.063341 
 39.64 3.990570   0.206233  0.062574 
 39.64 4.007280   0.250663  0.077333 
 39.64 4.023980   0.344747  0.108007 
 39.64 4.040700   0.324161  0.103157 
 39.64 4.057430   0.378862  0.123493 
 39.64 4.074140   0.422907  0.139043 
 39.64 4.090880   0.432167  0.143852 
 39.64 4.107600   0.493975  0.166831 
 39.64 4.124330   0.332497  0.114003 
 39.64 4.141070   0.303561  0.105781 
 39.64 4.157810   0.165100  0.058486 
 39.64 4.174560   0.112775  0.040566 
 39.64 4.191300   0.078641  0.028761 
 39.64 4.208040   0.049258  0.018352 
 39.64 4.224780   0.023486  0.008847 
 39.64 4.241530   0.028943  0.011053 
 39.64 4.258270   0.035321  0.013707 
 39.64 4.275020   0.076585  0.030147 
 39.64 4.291770   0.071152  0.028663 
 39.64 4.308520   0.035290  0.014677 
 39.64 4.325260   0.039617  0.016637 
 39.64 4.342010   0.051126  0.021815 
 39.64 4.358760   0.038841  0.017133 
 39.64 4.375500   0.042536  0.019057 
 39.64 4.392240   0.044598  0.020177 
 39.64 4.408980   0.055601  0.025844 
 39.64 4.425730   0.073868  0.035094 
 39.64 4.442480   0.066112  0.031614 
 39.64 4.459220   0.080318  0.038951 
 39.64 4.475990   0.095862  0.047732 
 39.64 4.492740   0.107378  0.053948 
 39.64 4.509490   0.155576  0.078996 
 39.64 4.526250   0.170514  0.088469 
 39.64 4.543010   0.198256  0.104625 
 39.64 4.559790   0.171276  0.091093 
 39.64 4.576540   0.203832  0.109911 
 39.64 4.593320   0.227951  0.125696 
 39.64 4.610090   0.235816  0.131213 
 39.64 4.626870   0.238118  0.133767 
 39.64 4.643640   0.254053  0.144651 
 39.64 4.660440   0.291847  0.170146 
 39.64 4.677210   0.302765  0.177021 
 39.64 4.694010   0.312956  0.184603 
 39.64 4.710790   0.250955  0.150071 
 39.64 4.727590   0.216082  0.130975 
 39.64 4.744400   0.159101  0.097474 
 39.64 4.761210   0.214868  0.133310 
 39.64 4.778030   0.271796  0.171344 
 39.64 4.794860   0.320965  0.205049 
 39.64 4.811690   0.293389  0.189797 
 39.64 4.828520   0.300251  0.196058 
 39.64 4.845360   0.277204  0.183118 
 39.64 4.862220   0.266149  0.178495 
 39.64 4.879080   0.298902  0.203523 
 39.64 4.895940   0.273899  0.188441 
 39.64 4.912830   0.308040  0.214663 
 39.64 4.929720   0.280698  0.198650 
 39.64 4.946610   0.302831  0.217035 
 39.64 4.963510   0.319067  0.231454 
 39.64 4.980430   0.352335  0.258566 
 39.64 4.997340   0.425697  0.317106 
 39.64 5.014250   0.426506  0.322006 
 39.64 5.031170   0.517531  0.395261 
 39.64 5.048110   0.583070  0.449405 
 39.64 5.065030   0.608087  0.475284 
 39.64 5.081950   0.417536  0.331126 
 39.64 5.098890   0.564297  0.453630 
 39.64 5.115800   0.592634  0.482389 
 39.64 5.132420   0.607345  0.501456 
 49.61 0.350540  36.669716  0.097760 
 49.61 0.358950  34.619674  0.092874 
 49.61 0.366290  37.610541  0.088084 
 49.61 0.373220  35.140816  0.085116 
 49.61 0.379490  34.721101  0.084466 
 49.61 0.387900  33.894222  0.085126 
 49.61 0.395180  36.531806  0.085561 
 49.61 0.402520  57.015372  0.093629 
 49.61 0.409550  63.772804  0.099289 
 49.61 0.417310  70.991966  0.106674 
 49.61 0.424360  73.339005  0.113198 
 49.61 0.431840  76.152263  0.123044 
 49.61 0.439190  88.379686  0.128336 
 49.61 0.446520 101.395058  0.135434 
 49.61 0.453720 111.465994  0.143845 
 49.61 0.461630 115.913586  0.148406 
 49.61 0.468410 118.432087  0.154929 
 49.61 0.476220 125.429557  0.161571 
 49.61 0.486290 122.157786  0.166760 
 49.61 0.489670 123.162957  0.168625 
 49.61 0.497770 132.632609  0.179908 
 49.61 0.506280 132.092883  0.182670 
 49.61 0.512220 132.707024  0.187173 
 49.61 0.519630 128.320659  0.190196 
 49.61 0.527660 135.566081  0.193570 
 49.61 0.534160 139.797620  0.196717 
 49.61 0.541560 135.200164  0.192723 
 49.61 0.549540 142.745826  0.201821 
 49.61 0.556140 143.330575  0.206575 
 49.61 0.563530 145.004795  0.210876 
 49.61 0.571310 146.486214  0.212341 
 49.61 0.578100 146.465195  0.212538 
 49.61 0.585480 148.801541  0.219157 
 49.61 0.593120 145.915944  0.219048 
 49.61 0.599380 144.417549  0.218082 
 49.61 0.607570 148.301391  0.225873 
 49.61 0.615050 127.001888  0.200255 
 49.61 0.622070 116.039986  0.183431 
 49.61 0.629400 143.570456  0.229721 
 49.61 0.637040 146.266123  0.237599 
 49.61 0.644080 140.626205  0.232709 
 49.61 0.651420 136.333322  0.231619 
 49.61 0.659100 129.716657  0.227528 
 49.61 0.666090 127.899562  0.221419 
 49.61 0.673420 133.824740  0.235704 
 49.61 0.681020 135.596412  0.243753 
 49.61 0.688030 132.067163  0.241752 
 49.61 0.695350 127.672002  0.238172 
 49.61 0.702880 108.778944  0.207252 
 49.61 0.710000 113.073249  0.217877 
 49.61 0.717330  95.844942  0.189660 
 49.61 0.724840  50.722634  0.101086 
 49.61 0.731980  52.051713  0.105582 
 49.61 0.739300  93.103613  0.193372 
 49.61 0.746760 112.867982  0.236833 
 49.61 0.753960 111.160753  0.236295 
 49.61 0.761280 103.426969  0.224040 
 49.61 0.768740  96.076231  0.212743 
 49.61 0.775950  89.194895  0.199596 
 49.61 0.783280  72.160973  0.163139 
 49.61 0.790720  70.672287  0.162932 
 49.61 0.797930  61.579746  0.144234 
 49.61 0.805220  69.735497  0.166119 
 49.61 0.812620  82.305826  0.198334 
 49.61 0.819890  89.264597  0.220835 
 49.61 0.827210  93.001602  0.231664 
 49.61 0.834630  86.259814  0.219818 
 49.61 0.841900  65.501217  0.169258 
 49.61 0.849220  71.561171  0.192346 
 49.61 0.856630  50.688071  0.139594 
 49.61 0.863910  25.372059  0.070055 
 49.61 0.871220  38.566515  0.106816 
 49.61 0.878630  39.824688  0.110477 
 49.61 0.885890   7.361148  0.020754 
 49.61 0.893210   7.740983  0.021857 
 49.61 0.909667  34.467889  0.100849 
 49.61 0.926122  66.594229  0.201901 
 49.61 0.942572  77.011484  0.241328 
 49.61 0.959010  62.459224  0.202964 
 49.61 0.975452  27.555904  0.092811 
 49.61 0.991881  12.896404  0.045022 
 49.61 1.008310  11.371212  0.041185 
 49.61 1.024730  18.996419  0.071484 
 49.61 1.041150  41.447612  0.162066 
 49.61 1.057560  56.278791  0.228558 
 49.61 1.073950  58.039441  0.244540 
 49.61 1.090360  54.091142  0.234394 
 49.61 1.106760  37.559217  0.168131 
 49.61 1.123170  13.213097  0.060791 
 49.61 1.139560   2.430814  0.011525 
 49.61 1.155950   1.852317  0.009021 
 49.61 1.172340   1.188884  0.005980 
 49.61 1.188720   2.401847  0.012431 
 49.61 1.205110   8.615309  0.045790 
 49.61 1.221500  24.387247  0.132906 
 49.61 1.237880  23.952519  0.134720 
 49.61 1.254270  35.568851  0.206112 
 49.61 1.270650  40.496500  0.241583 
 49.61 1.287020  41.730327  0.258694 
 49.61 1.303400  36.196767  0.230614 
 49.61 1.319790  16.887497  0.111722 
 49.61 1.336170   7.620204  0.052236 
 49.61 1.352560   2.751196  0.019519 
 49.61 1.368940   1.716488  0.012535 
 49.61 1.385320   1.236649  0.009263 
 49.61 1.401700   1.064719  0.008175 
 49.61 1.418100   1.532874  0.012085 
 49.61 1.434490   3.970065  0.032234 
 49.61 1.450890   5.827924  0.048627 
 49.61 1.467290   9.263510  0.079118 
 49.61 1.483690  12.510406  0.109652 
 49.61 1.500090  21.356288  0.191257 
 49.61 1.516510  23.491886  0.216809 
 49.61 1.532930  25.764913  0.243719 
 49.61 1.549350  27.005833  0.262199 
 49.61 1.565780  26.748206  0.266670 
 49.61 1.582210  27.422449  0.281881 
 49.61 1.598650  27.092856  0.287172 
 49.61 1.615120  23.842285  0.259970 
 49.61 1.631540  14.852871  0.165788 
 49.61 1.647990   6.759133  0.078850 
 49.61 1.664460   1.527885  0.018170 
 49.61 1.680930   1.736378  0.021462 
 49.61 1.697390   0.892396  0.011320 
 49.61 1.713870   0.353671  0.004657 
 49.61 1.730340   0.400661  0.005432 
 49.61 1.746820   1.324936  0.018795 
 49.61 1.763300   0.844851  0.012296 
 49.61 1.779780   0.392455  0.005899 
 49.61 1.796260   0.705865  0.010930 
 49.61 1.812740   2.088039  0.033280 
 49.61 1.829220   3.978061  0.066247 
 49.61 1.845700   2.661410  0.045624 
 49.61 1.862180   4.163989  0.073298 
 49.61 1.878660   7.524077  0.138956 
 49.61 1.895140   8.355143  0.156630 
 49.61 1.911610   6.474994  0.125117 
 49.61 1.928080   4.954239  0.098699 
 49.61 1.944550   5.205338  0.107797 
 49.61 1.961010   5.268668  0.111651 
 49.61 1.977480   5.389132  0.117820 
 49.61 1.993940   5.242854  0.118016 
 49.61 2.010410   4.557634  0.105521 
 49.61 2.026890   3.500834  0.083571 
 49.61 2.043360   2.613966  0.064622 
 49.61 2.059840   1.853246  0.047357 
 49.61 2.076330   1.120984  0.029677 
 49.61 2.092830   0.607319  0.016592 
 49.61 2.109340   0.418136  0.011702 
 49.61 2.125870   0.371323  0.010676 
 49.61 2.142400   0.593397  0.017419 
 49.61 2.158950   0.451011  0.013588 
 49.61 2.175520   0.138466  0.004378 
 49.61 2.192110   0.141798  0.004515 
 49.61 2.208700   0.156342  0.005114 
 49.61 2.225320   0.097119  0.003244 
 49.61 2.241950   0.106074  0.003671 
 49.61 2.258580   0.077259  0.002760 
 49.61 2.275220   0.041394  0.001517 
 49.61 2.291850   0.061118  0.002301 
 49.61 2.308490   0.052763  0.002036 
 49.61 2.325120   0.024327  0.000967 
 49.61 2.341740   0.055868  0.002280 
 49.61 2.358360   0.071205  0.002994 
 49.61 2.374960   0.058651  0.002519 
 49.61 2.391560   0.026286  0.001167 
 49.61 2.408150   0.037637  0.001692 
 49.61 2.424740   0.033621  0.001562 
 49.61 2.441320   0.042813  0.002027 
 49.61 2.457890   0.224512  0.010993 
 49.61 2.474470   0.601911  0.030011 
 49.61 2.491040   0.819284  0.042103 
 49.61 2.507610   0.938177  0.048892 
