#Title: Jupiter and Saturn as Spectral Analogs for 
#       Extrasolar Gas Giants and Brown Dwarfs 
#Authors: Coulter D.J., Barnes J.W., Fortney J.J.
#Figure: Disk-integrated spectra of Jupiter for six phase angles
#================================================================================
#Byte-by-byte Description of file: dbf4.txt
#--------------------------------------------------------------------------------
#   Bytes Format Units        Label       Explanations
#--------------------------------------------------------------------------------
#   1-  6 F6.2   deg          Phase       Phase angle
#   8- 15 F8.6   um           Wavelength  Wavelength
#  17- 27 F11.6  uW/cm2/sr/um Flux        Spectral flux radiance
#  29- 37 F9.6   ---          I/F         Apparent reflectance
#--------------------------------------------------------------------------------
  1.66 0.350540  338.204774  0.269482 
  1.66 0.358950  339.425409  0.272154 
  1.66 0.366290  405.555318  0.283880 
  1.66 0.373220  393.473219  0.284847 
  1.66 0.379490  411.292365  0.299048 
  1.66 0.387900  390.840370  0.293384 
  1.66 0.395180  413.680144  0.289580 
  1.66 0.402520  678.668578  0.333099 
  1.66 0.409550  720.669637  0.335353 
  1.66 0.417310  775.028309  0.348071 
  1.66 0.424360  758.605114  0.349960 
  1.66 0.431840  737.311497  0.356065 
  1.66 0.439190  838.361660  0.363852 
  1.66 0.446520  946.193117  0.377737 
  1.66 0.453720 1013.455300  0.390892 
  1.66 0.461630 1025.097929  0.392267 
  1.66 0.468410 1008.740397  0.394404 
  1.66 0.476220 1050.414419  0.404411 
  1.66 0.486290 1029.194914  0.419922 
  1.66 0.489670 1012.532564  0.414334 
  1.66 0.497770 1091.375280  0.442461 
  1.66 0.506280 1062.729429  0.439249 
  1.66 0.512220 1062.113520  0.447733 
  1.66 0.519630 1005.071352  0.445247 
  1.66 0.527660 1052.244287  0.449058 
  1.66 0.534160 1079.064805  0.453825 
  1.66 0.541560 1038.864045  0.442603 
  1.66 0.549540 1073.241672  0.453524 
  1.66 0.556140 1052.941828  0.453567 
  1.66 0.563530 1051.590496  0.457078 
  1.66 0.571310 1050.881782  0.455292 
  1.66 0.578100 1045.379993  0.453394 
  1.66 0.585480 1040.238252  0.457910 
  1.66 0.593120 1001.561713  0.449380 
  1.66 0.599380  972.223442  0.438798 
  1.66 0.607570 1004.601422  0.457312 
  1.66 0.615050  884.226270  0.416712 
  1.66 0.622070  829.047239  0.391690 
  1.66 0.629400  932.108300  0.445760 
  1.66 0.637040  926.547841  0.449851 
  1.66 0.644080  869.637952  0.430116 
  1.66 0.651420  839.938224  0.426499 
  1.66 0.659100  816.326429  0.427959 
  1.66 0.666090  828.684524  0.428780 
  1.66 0.673420  841.988417  0.443236 
  1.66 0.681020  834.679288  0.448456 
  1.66 0.688030  810.896329  0.443649 
  1.66 0.695350  777.725212  0.433630 
  1.66 0.702880  698.923903  0.398001 
  1.66 0.710000  706.662550  0.406970 
  1.66 0.717330  638.048846  0.377362 
  1.66 0.724840  406.554216  0.242163 
  1.66 0.731980  406.788659  0.246618 
  1.66 0.739300  606.120135  0.376257 
  1.66 0.746760  669.938144  0.420151 
  1.66 0.753960  646.609300  0.410813 
  1.66 0.761280  594.388629  0.384823 
  1.66 0.768740  565.070642  0.373973 
  1.66 0.775950  547.987458  0.366505 
  1.66 0.783280  461.783296  0.312027 
  1.66 0.790720  409.902591  0.282447 
  1.66 0.797930  409.354293  0.286568 
  1.66 0.805220  459.768414  0.327344 
  1.66 0.812620  498.456592  0.358999 
  1.66 0.819890  510.118098  0.377189 
  1.66 0.827210  526.632343  0.392080 
  1.66 0.834630  497.356802  0.378811 
  1.66 0.841900  418.434427  0.323167 
  1.66 0.849220  440.448763  0.353834 
  1.66 0.856630  342.461045  0.281884 
  1.66 0.863910  196.833554  0.162436 
  1.66 0.871220  276.214511  0.228651 
  1.66 0.878630  270.888429  0.224599 
  1.66 0.885890   51.788741  0.043641 
  1.66 0.893210  113.834621  0.094704 
  1.66 0.909667  199.259434  0.170895 
  1.66 0.926122  407.845600  0.362053 
  1.66 0.942572  439.973403  0.405522 
  1.66 0.959010  426.763804  0.407425 
  1.66 0.975452  237.752619  0.235167 
  1.66 0.991881  121.993879  0.125062 
  1.66 1.008310   91.919432  0.097465 
  1.66 1.024730  100.830726  0.111242 
  1.66 1.041150  170.327473  0.195000 
  1.66 1.057560  279.994805  0.333712 
  1.66 1.073950  308.446049  0.381509 
  1.66 1.090360  286.043537  0.365371 
  1.66 1.106760  220.125534  0.290240 
  1.66 1.123170   96.859540  0.131171 
  1.66 1.139560   16.506047  0.023049 
  1.66 1.155950   13.270671  0.019092 
  1.66 1.172340    5.184264  0.007673 
  1.66 1.188720   12.166566  0.018539 
  1.66 1.205110   29.496325  0.046157 
  1.66 1.221500   78.938131  0.127231 
  1.66 1.237880   99.324710  0.164097 
  1.66 1.254270  154.166343  0.263561 
  1.66 1.270650  161.126661  0.283052 
  1.66 1.287020  161.444064  0.291814 
  1.66 1.303400  114.275392  0.214521 
  1.66 1.319790   62.574852  0.121344 
  1.66 1.336170   33.303506  0.066932 
  1.66 1.352560   12.565507  0.026206 
  1.66 1.368940    6.662922  0.014353 
  1.66 1.385320    5.426722  0.011999 
  1.66 1.401700    4.297653  0.009736 
  1.66 1.418100    5.283754  0.012293 
  1.66 1.434490   12.649052  0.030247 
  1.66 1.450890   22.345413  0.054872 
  1.66 1.467290   30.344263  0.076623 
  1.66 1.483690   30.059822  0.077733 
  1.66 1.500090   36.860073  0.097816 
  1.66 1.516510   38.611503  0.105410 
  1.66 1.532930   45.133165  0.125797 
  1.66 1.549350   58.301970  0.167076 
  1.66 1.565780   77.684841  0.228777 
  1.66 1.582210   86.629149  0.261575 
  1.66 1.598650   99.180676  0.309741 
  1.66 1.615120   93.057713  0.297280 
  1.66 1.631540   60.189587  0.199532 
  1.66 1.647990   27.269781  0.092750 
  1.66 1.664460    5.645790  0.019854 
  1.66 1.680930    4.641796  0.016761 
  1.66 1.697390    3.231325  0.012181 
  1.66 1.713870    1.033901  0.003988 
  1.66 1.730340    0.943772  0.003762 
  1.66 1.746820    2.592273  0.010803 
  1.66 1.763300    2.985611  0.012786 
  1.66 1.779780    1.172836  0.005185 
  1.66 1.796260    1.415801  0.006468 
  1.66 1.812740    4.338902  0.020387 
  1.66 1.829220    8.518272  0.041797 
  1.66 1.845700    7.863109  0.039445 
  1.66 1.862180   10.493171  0.054649 
  1.66 1.878660   19.862610  0.106135 
  1.66 1.895140   23.283437  0.129343 
  1.66 1.911610   17.807463  0.101822 
  1.66 1.928080   10.998645  0.064498 
  1.66 1.944550    9.107368  0.055072 
  1.66 1.961010    7.148031  0.045388 
  1.66 1.977480    6.971562  0.044804 
  1.66 1.993940    6.559089  0.043535 
  1.66 2.010410    5.499829  0.037570 
  1.66 2.026890    4.570689  0.032035 
  1.66 2.043360    3.518734  0.025571 
  1.66 2.059840    2.352571  0.017622 
  1.66 2.076330    1.528324  0.011922 
  1.66 2.092830    0.777229  0.006240 
  1.66 2.109340    0.565615  0.004690 
  1.66 2.125870    0.479133  0.004059 
  1.66 2.142400    0.606166  0.005262 
  1.66 2.158950    0.611605  0.005429 
  1.66 2.175520    0.336792  0.003129 
  1.66 2.192110    0.335770  0.003165 
  1.66 2.208700    0.205484  0.001976 
  1.66 2.225320    0.192100  0.001907 
  1.66 2.241950    0.163066  0.001662 
  1.66 2.258580    0.074397  0.000780 
  1.66 2.275220    0.143390  0.001553 
  1.66 2.291850    0.119369  0.001325 
  1.66 2.308490    0.100623  0.001149 
  1.66 2.325120    0.133519  0.001557 
  1.66 2.341740    0.083918  0.001014 
  1.66 2.358360    0.037494  0.000463 
  1.66 2.374960    0.177825  0.002260 
  1.66 2.391560    0.121100  0.001580 
  1.66 2.408150    0.178330  0.002379 
  1.66 2.424740    0.127630  0.001745 
  1.66 2.441320    0.142106  0.001988 
  1.66 2.457890    0.271355  0.003903 
  1.66 2.474470    0.504332  0.007439 
  1.66 2.491040    0.825026  0.012502 
  1.66 2.507610    1.134607  0.017519 
  1.66 2.524180    1.105264  0.017473 
  1.66 2.540750    1.157864  0.018718 
  1.66 2.557330    0.803944  0.013443 
  1.66 2.573900    0.308140  0.005271 
  1.66 2.590480    0.240860  0.004201 
  1.66 2.607070    0.329477  0.005876 
  1.66 2.623670    1.089189  0.019699 
  1.66 2.640260    3.656572  0.068990 
  1.66 2.656860    7.299233  0.138738 
  1.66 2.673470    9.434287  0.184698 
  1.66 2.690100   10.570761  0.211852 
  1.66 2.706720   11.234386  0.229744 
  1.66 2.723340   11.547980  0.241644 
  1.66 2.740000   11.190646  0.239533 
  1.66 2.756630   10.800392  0.236289 
  1.66 2.773270    9.646278  0.217467 
  1.66 2.789930    8.022141  0.183918 
  1.66 2.806590    5.656158  0.132143 
  1.66 2.823260    3.691413  0.088176 
  1.66 2.839920    2.447248  0.059752 
  1.66 2.856590    1.900990  0.047507 
  1.66 2.873260    1.570162  0.040139 
  1.66 2.889940    1.493172  0.039233 
  1.66 2.906610    1.145774  0.030549 
  1.66 2.923300    0.956905  0.026055 
  1.66 2.939980    0.918264  0.025596 
  1.66 2.956660    0.721986  0.020544 
  1.66 2.973340    0.680339  0.019744 
  1.66 2.990010    0.600012  0.017775 
  1.66 3.006770    0.535253  0.016226 
  1.66 3.023430    0.692163  0.021406 
  1.66 3.040120    0.696984  0.022069 
  1.66 3.056840    0.681582  0.022182 
  1.66 3.073530    0.682275  0.022488 
  1.66 3.090230    0.707807  0.023799 
  1.66 3.106930    0.673259  0.023113 
  1.66 3.123610    0.562164  0.019740 
  1.66 3.140320    0.563881  0.020166 
  1.66 3.157020    0.496685  0.018115 
  1.66 3.173720    0.329276  0.012261 
  1.66 3.190410    0.094779  0.003598 
  1.66 3.207110    0.083889  0.003245 
  1.66 3.223800    0.028676  0.001132 
  1.66 3.240500    0.032655  0.001315 
  1.66 3.257180    0.056246  0.002312 
  1.66 3.273870    0.049923  0.002091 
  1.66 3.290560    0.001281  0.000055 
  1.66 3.307240    0.013451  0.000592 
  1.66 3.323910    0.052091  0.002325 
  1.66 3.340590    0.029590  0.001344 
  1.66 3.357260    0.037450  0.001728 
  1.66 3.373920    0.028633  0.001347 
  1.66 3.390580    0.034829  0.001671 
  1.66 3.407250    0.020612  0.001010 
  1.66 3.423910    0.032338  0.001615 
  1.66 3.440570    0.030134  0.001529 
  1.66 3.457230    0.001298  0.000067 
  1.66 3.473890    0.028541  0.001499 
  1.66 3.490540    0.008493  0.000455 
  1.66 3.507200    0.004669  0.000254 
  1.66 3.523840    0.030686  0.001701 
  1.66 3.540500    0.006883  0.000389 
  1.66 3.557160    0.042049  0.002420 
  1.66 3.573810    0.001314  0.000077 
  1.66 3.590470    0.034693  0.002071 
  1.66 3.607110    0.022554  0.001369 
  1.66 3.623770    0.017403  0.001074 
  1.66 3.640430    0.025433  0.001597 
  1.66 3.657090    0.049743  0.003188 
  1.66 3.673740    0.073324  0.004790 
  1.66 3.690400    0.074903  0.004991 
  1.66 3.707060    0.116115  0.007907 
  1.66 3.723730    0.052742  0.003656 
  1.66 3.740390    0.081182  0.005702 
  1.66 3.757050    0.038758  0.002808 
  1.66 3.773710    0.040420  0.002944 
  1.66 3.790380    0.035159  0.002596 
  1.66 3.807040    0.006009  0.000451 
  1.66 3.823710    0.062674  0.004776 
  1.66 3.840390    0.062818  0.004859 
  1.66 3.857060    0.026177  0.002056 
  1.66 3.873700    0.111607  0.008926 
  1.66 3.890410    0.079027  0.006430 
  1.66 3.907090    0.107779  0.008914 
  1.66 3.923780    0.074994  0.006294 
  1.66 3.940470    0.162695  0.013874 
  1.66 3.957170    0.220834  0.019178 
  1.66 3.973870    0.287097  0.025383 
  1.66 3.990570    0.287315  0.025809 
  1.66 4.007280    0.408098  0.037374 
  1.66 4.023980    0.392948  0.036526 
  1.66 4.040700    0.485292  0.045780 
  1.66 4.057430    0.414397  0.039936 
  1.66 4.074140    0.579444  0.056783 
  1.66 4.090880    0.538352  0.053202 
  1.66 4.107600    0.691106  0.069299 
  1.66 4.124330    0.553775  0.056356 
  1.66 4.141070    0.612897  0.063327 
  1.66 4.157810    0.370542  0.038950 
  1.66 4.174560    0.279827  0.029858 
  1.66 4.191300    0.225525  0.024462 
  1.66 4.208040    0.162455  0.017933 
  1.66 4.224780    0.171837  0.019266 
  1.66 4.241530    0.171994  0.019488 
  1.66 4.258270    0.216053  0.024885 
  1.66 4.275020    0.321994  0.037629 
  1.66 4.291770    0.341405  0.040553 
  1.66 4.308520    0.116306  0.014277 
  1.66 4.325260    0.214589  0.026831 
  1.66 4.342010    0.365482  0.046189 
  1.66 4.358760    0.327883  0.042503 
  1.66 4.375500    0.225458  0.030061 
  1.66 4.392240    0.233988  0.031473 
  1.66 4.408980    0.235695  0.032228 
  1.66 4.425730    0.238416  0.033649 
  1.66 4.442480    0.311540  0.044374 
  1.66 4.459220    0.370656  0.053299 
  1.66 4.475990    0.476119  0.069990 
  1.66 4.492740    0.494202  0.074033 
  1.66 4.509490    0.685634  0.103434 
  1.66 4.526250    0.977038  0.149712 
  1.66 4.543010    1.290298  0.202524 
  1.66 4.559790    1.295959  0.205267 
  1.66 4.576540    2.183945  0.349377 
  1.66 4.593320    2.793948  0.455389 
  1.66 4.610090    3.646916  0.604978 
  1.66 4.626870    3.998257  0.668245 
  1.66 4.643640    4.480993  0.756452 
  1.66 4.660440    5.293947  0.913951 
  1.66 4.677210    6.063901  1.058353 
  1.66 4.694010    6.219448  1.091860 
  1.66 4.710790    6.200757  1.100388 
  1.66 4.727590    5.838473  1.052612 
  1.66 4.744400    4.517195  0.822590 
  1.66 4.761210    5.820767  1.073067 
  1.66 4.778030    7.185565  1.342860 
  1.66 4.794860    6.980911  1.325964 
  1.66 4.811690    7.910876  1.521081 
  1.66 4.828520    7.055024  1.370948 
  1.66 4.845360    6.630922  1.301863 
  1.66 4.862220    6.202768  1.234679 
  1.66 4.879080    7.272149  1.470023 
  1.66 4.895940    6.405326  1.310994 
  1.66 4.912830    6.006155  1.242760 
  1.66 4.929720    6.878058  1.445355 
  1.66 4.946610    5.664028  1.206054 
  1.66 4.963510    5.230539  1.128029 
  1.66 4.980430    6.047663  1.319231 
  1.66 4.997340    7.241090  1.600956 
  1.66 5.014250    6.625516  1.485876 
  1.66 5.031170    4.916666  1.116858 
  1.66 5.048110    7.251287  1.663681 
  1.66 5.065030    8.090719  1.877863 
  1.66 5.081950    7.043005  1.657581 
  1.66 5.098890    5.658065  1.351341 
  1.66 5.115800    6.470813  1.565621 
  1.66 5.132420    6.639372  1.627255 
 15.19 0.350540  307.120863  0.244715 
 15.19 0.358950  307.905091  0.246881 
 15.19 0.366290  366.290805  0.256395 
 15.19 0.373220  351.873629  0.254732 
 15.19 0.379490  370.534199  0.269413 
 15.19 0.387900  347.872550  0.261130 
 15.19 0.395180  360.434294  0.252307 
 15.19 0.402520  604.551299  0.296721 
 15.19 0.409550  641.500885  0.298513 
 15.19 0.417310  693.026120  0.311243 
 15.19 0.424360  673.977630  0.310919 
 15.19 0.431840  653.131937  0.315413 
 15.19 0.439190  742.643047  0.322310 
 15.19 0.446520  852.204286  0.340215 
 15.19 0.453720  904.704228  0.348947 
 15.19 0.461630  919.565154  0.351884 
 15.19 0.468410  909.431665  0.355576 
 15.19 0.476220  942.426322  0.362835 
 15.19 0.486290  928.769207  0.378947 
 15.19 0.489670  914.221682  0.374104 
 15.19 0.497770  984.567487  0.399159 
 15.19 0.506280  954.426221  0.394485 
 15.19 0.512220  954.871653  0.402526 
 15.19 0.519630  903.575446  0.400284 
 15.19 0.527660  946.798374  0.404057 
 15.19 0.534160  974.474816  0.409837 
 15.19 0.541560  935.159794  0.398420 
 15.19 0.549540  969.718717  0.409777 
 15.19 0.556140  954.565522  0.411191 
 15.19 0.563530  954.548116  0.414898 
 15.19 0.571310  954.949961  0.413730 
 15.19 0.578100  951.798210  0.412806 
 15.19 0.585480  948.363687  0.417467 
 15.19 0.593120  915.863997  0.410929 
 15.19 0.599380  867.589432  0.391573 
 15.19 0.607570  919.281295  0.418472 
 15.19 0.615050  802.490739  0.378192 
 15.19 0.622070  749.851860  0.354273 
 15.19 0.629400  852.399547  0.407642 
 15.19 0.637040  848.680669  0.412045 
 15.19 0.644080  793.696367  0.392556 
 15.19 0.651420  766.528049  0.389223 
 15.19 0.659100  746.808777  0.391514 
 15.19 0.666090  756.598557  0.391481 
 15.19 0.673420  772.786938  0.406808 
 15.19 0.681020  763.286898  0.410099 
 15.19 0.688030  740.856283  0.405329 
 15.19 0.695350  713.251119  0.397682 
 15.19 0.702880  638.213177  0.363429 
 15.19 0.710000  645.197125  0.371572 
 15.19 0.717330  584.045156  0.345423 
 15.19 0.724840  361.329505  0.215226 
 15.19 0.731980  360.123896  0.218327 
 15.19 0.739300  550.953960  0.342011 
 15.19 0.746760  614.243633  0.385223 
 15.19 0.753960  592.224359  0.376260 
 15.19 0.761280  543.235797  0.351705 
 15.19 0.768740  517.447881  0.342456 
 15.19 0.775950  500.143043  0.334506 
 15.19 0.783280  419.873551  0.283708 
 15.19 0.790720  370.988893  0.255633 
 15.19 0.797930  371.036568  0.259744 
 15.19 0.805220  418.820654  0.298190 
 15.19 0.812620  453.380589  0.326534 
 15.19 0.819890  466.260519  0.344760 
 15.19 0.827210  483.869740  0.360243 
 15.19 0.834630  455.537860  0.346960 
 15.19 0.841900  383.195729  0.295951 
 15.19 0.849220  404.678120  0.325098 
 15.19 0.856630  313.517445  0.258061 
 15.19 0.863910  172.000682  0.141943 
 15.19 0.871220  252.776870  0.209249 
 15.19 0.878630  244.843262  0.203004 
 15.19 0.885890   45.447391  0.038298 
 15.19 0.893210  234.928684  0.194870 
 15.19 0.909667   69.896198  0.059011 
 15.19 0.926122  267.408295  0.233968 
 15.19 0.942572  369.580833  0.335141 
 15.19 0.959010  408.713713  0.383040 
 15.19 0.975452  337.750551  0.328225 
 15.19 0.991881  168.548552  0.169757 
 15.19 1.008310   85.688674  0.089451 
 15.19 1.024730   75.981369  0.082301 
 15.19 1.041150  103.667486  0.116653 
 15.19 1.057560  183.576129  0.214655 
 15.19 1.073950  265.592579  0.322519 
 15.19 1.090360  271.835975  0.342459 
 15.19 1.106760  237.204382  0.307326 
 15.19 1.123170  171.241486  0.229166 
 15.19 1.139560   48.138508  0.066219 
 15.19 1.155950   13.308970  0.018867 
 15.19 1.172340    7.343930  0.010693 
 15.19 1.188720    5.807864  0.008734 
 15.19 1.205110   12.429670  0.019233 
 15.19 1.221500   38.984528  0.061951 
 15.19 1.237880   78.387442  0.127713 
 15.19 1.254270  101.827863  0.171245 
 15.19 1.270650  145.135971  0.251436 
 15.19 1.287020  146.385420  0.261078 
 15.19 1.303400  134.567634  0.249448 
 15.19 1.319790   87.619375  0.166913 
 15.19 1.336170   43.515332  0.086078 
 15.19 1.352560   23.229653  0.047613 
 15.19 1.368940    8.113213  0.017210 
 15.19 1.385320    5.266395  0.011498 
 15.19 1.401700    4.193297  0.009390 
 15.19 1.418100    3.397068  0.007798 
 15.19 1.434490    6.305584  0.014862 
 15.19 1.450890   14.638969  0.035533 
 15.19 1.467290   21.212325  0.052917 
 15.19 1.483690   28.659271  0.073178 
 15.19 1.500090   28.030170  0.073452 
 15.19 1.516510   33.470623  0.089617 
 15.19 1.532930   35.953922  0.099189 
 15.19 1.549350   43.747110  0.123729 
 15.19 1.565780   59.828574  0.173675 
 15.19 1.582210   74.795337  0.222935 
 15.19 1.598650   83.059774  0.255292 
 15.19 1.615120   92.705966  0.293746 
 15.19 1.631540   77.699115  0.253362 
 15.19 1.647990   39.673577  0.132389 
 15.19 1.664460    6.573591  0.022930 
 15.19 1.680930    3.961123  0.014085 
 15.19 1.697390    4.301351  0.015904 
 15.19 1.713870    1.610305  0.006107 
 15.19 1.730340    1.086816  0.004279 
 15.19 1.746820    0.909008  0.003686 
 15.19 1.763300    2.645159  0.011217 
 15.19 1.779780    1.913610  0.008329 
 15.19 1.796260    0.789842  0.003551 
 15.19 1.812740    1.596463  0.007392 
 15.19 1.829220    5.124156  0.024426 
 15.19 1.845700    8.064924  0.040143 
 15.19 1.862180    6.366752  0.032645 
 15.19 1.878660   11.930098  0.062790 
 15.19 1.895140   19.353823  0.106930 
 15.19 1.911610   19.038144  0.106755 
 15.19 1.928080   12.594406  0.072767 
 15.19 1.944550    8.794375  0.052392 
 15.19 1.961010    7.037243  0.043606 
 15.19 1.977480    5.884354  0.037275 
 15.19 1.993940    5.698495  0.037255 
 15.19 2.010410    5.130425  0.034532 
 15.19 2.026890    4.346077  0.030086 
 15.19 2.043360    3.431588  0.024499 
 15.19 2.059840    2.478184  0.018320 
 15.19 2.076330    1.657482  0.012669 
 15.19 2.092830    1.061910  0.008406 
 15.19 2.109340    0.662637  0.005414 
 15.19 2.125870    0.387568  0.003243 
 15.19 2.142400    0.459486  0.003950 
 15.19 2.158950    0.427565  0.003753 
 15.19 2.175520    0.530566  0.004782 
 15.19 2.192110    0.130125  0.001229 
 15.19 2.208700    0.097825  0.000931 
 15.19 2.225320    0.204217  0.001999 
 15.19 2.241950    0.229229  0.002289 
 15.19 2.258580    0.226761  0.002347 
 15.19 2.275220   -0.006144 -0.000066 
 15.19 2.291850    0.095146  0.001043 
